   361976 U S STANDARD
   2.70000 100.00000  51.30000 153.88382   1.06359   0.00000    0
  WAVELENGTH COMBIN    H2O   UMIX     O3  TRACE     N2    H2O MOLEC AER+CLD  HNO3 AER+CLD
        (NM)  TRANS  TRANS  TRANS  TRANS  TRANS   CONT   CONT   SCAT  TRANS  TRANS abTRNS
     250.000 0.0000 1.0000 0.0873 0.0000 0.9995 1.0000 1.0000 0.0442 1.0000 1.0000 1.0000
     250.500 0.0000 1.0000 0.1001 0.0000 0.9995 1.0000 1.0000 0.0455 1.0000 1.0000 1.0000
     251.000 0.0000 1.0000 0.1142 0.0000 0.9995 1.0000 1.0000 0.0468 1.0000 1.0000 1.0000
     251.500 0.0000 1.0000 0.1293 0.0000 0.9996 1.0000 1.0000 0.0481 1.0000 1.0000 1.0000
     252.000 0.0000 1.0000 0.1455 0.0000 0.9996 1.0000 1.0000 0.0494 1.0000 1.0000 1.0000
     252.500 0.0000 1.0000 0.1628 0.0000 0.9996 1.0000 1.0000 0.0507 1.0000 1.0000 1.0000
     253.000 0.0000 1.0000 0.1812 0.0000 0.9995 1.0000 1.0000 0.0521 1.0000 1.0000 1.0000
     253.500 0.0000 1.0000 0.2005 0.0000 0.9995 1.0000 1.0000 0.0534 1.0000 1.0000 1.0000
     254.000 0.0000 1.0000 0.2207 0.0000 0.9995 1.0000 1.0000 0.0548 1.0000 1.0000 1.0000
     254.500 0.0000 1.0000 0.2418 0.0000 0.9994 1.0000 1.0000 0.0562 1.0000 1.0000 1.0000
     255.000 0.0000 1.0000 0.2636 0.0000 0.9994 1.0000 1.0000 0.0577 1.0000 1.0000 1.0000
     255.500 0.0000 1.0000 0.2860 0.0000 0.9994 1.0000 1.0000 0.0591 1.0000 1.0000 1.0000
     256.000 0.0000 1.0000 0.3090 0.0000 0.9994 1.0000 1.0000 0.0606 1.0000 1.0000 1.0000
     256.500 0.0000 1.0000 0.3325 0.0000 0.9994 1.0000 1.0000 0.0621 1.0000 1.0000 1.0000
     257.000 0.0000 1.0000 0.3564 0.0000 0.9993 1.0000 1.0000 0.0636 1.0000 1.0000 1.0000
     257.500 0.0000 1.0000 0.3805 0.0000 0.9993 1.0000 1.0000 0.0651 1.0000 1.0000 1.0000
     258.000 0.0000 1.0000 0.4048 0.0000 0.9993 1.0000 1.0000 0.0667 1.0000 1.0000 1.0000
     258.500 0.0000 1.0000 0.4291 0.0000 0.9993 1.0000 1.0000 0.0683 1.0000 1.0000 1.0000
     259.000 0.0000 1.0000 0.4535 0.0000 0.9992 1.0000 1.0000 0.0699 1.0000 1.0000 1.0000
     259.500 0.0000 1.0000 0.4777 0.0000 0.9992 1.0000 1.0000 0.0715 1.0000 1.0000 1.0000
     260.000 0.0000 1.0000 0.5018 0.0000 0.9992 1.0000 1.0000 0.0731 1.0000 1.0000 1.0000
     260.500 0.0000 1.0000 0.5256 0.0000 0.9992 1.0000 1.0000 0.0747 1.0000 1.0000 1.0000
     261.000 0.0000 1.0000 0.5491 0.0000 0.9991 1.0000 1.0000 0.0764 1.0000 1.0000 1.0000
     261.500 0.0000 1.0000 0.5722 0.0000 0.9991 1.0000 1.0000 0.0781 1.0000 1.0000 1.0000
     262.000 0.0000 1.0000 0.5948 0.0000 0.9991 1.0000 1.0000 0.0798 1.0000 1.0000 1.0000
     262.500 0.0000 1.0000 0.6169 0.0000 0.9991 1.0000 1.0000 0.0815 1.0000 1.0000 1.0000
     263.000 0.0000 1.0000 0.6385 0.0000 0.9991 1.0000 1.0000 0.0833 1.0000 1.0000 1.0000
     263.500 0.0000 1.0000 0.6595 0.0000 0.9991 1.0000 1.0000 0.0850 1.0000 1.0000 1.0000
     264.000 0.0000 1.0000 0.6799 0.0000 0.9990 1.0000 1.0000 0.0868 1.0000 1.0000 1.0000
     264.500 0.0000 1.0000 0.6996 0.0000 0.9989 1.0000 1.0000 0.0886 1.0000 1.0000 1.0000
     265.000 0.0000 1.0000 0.7187 0.0000 0.9989 1.0000 1.0000 0.0904 1.0000 1.0000 1.0000
     265.500 0.0000 1.0000 0.7371 0.0000 0.9989 1.0000 1.0000 0.0922 1.0000 1.0000 1.0000
     266.000 0.0000 1.0000 0.7548 0.0000 0.9989 1.0000 1.0000 0.0941 1.0000 1.0000 1.0000
     266.500 0.0000 1.0000 0.7719 0.0000 0.9988 1.0000 1.0000 0.0959 1.0000 1.0000 1.0000
     267.000 0.0000 1.0000 0.7882 0.0000 0.9988 1.0000 1.0000 0.0978 1.0000 1.0000 1.0000
     267.500 0.0000 1.0000 0.8039 0.0000 0.9988 1.0000 1.0000 0.0997 1.0000 1.0000 1.0000
     268.000 0.0000 1.0000 0.8189 0.0000 0.9987 1.0000 1.0000 0.1016 1.0000 1.0000 1.0000
     268.500 0.0000 1.0000 0.8332 0.0000 0.9986 1.0000 1.0000 0.1035 1.0000 1.0000 1.0000
     269.000 0.0000 1.0000 0.8469 0.0000 0.9986 1.0000 1.0000 0.1054 1.0000 1.0000 1.0000
     269.500 0.0000 1.0000 0.8599 0.0000 0.9986 1.0000 1.0000 0.1074 1.0000 1.0000 1.0000
     270.000 0.0000 1.0000 0.8723 0.0000 0.9985 1.0000 1.0000 0.1094 1.0000 1.0000 1.0000
     270.500 0.0000 1.0000 0.8841 0.0000 0.9985 1.0000 1.0000 0.1114 1.0000 1.0000 1.0000
     271.000 0.0000 1.0000 0.8953 0.0000 0.9985 1.0000 1.0000 0.1134 1.0000 1.0000 1.0000
     271.500 0.0000 1.0000 0.9059 0.0000 0.9984 1.0000 1.0000 0.1154 1.0000 1.0000 1.0000
     272.000 0.0000 1.0000 0.9160 0.0000 0.9983 1.0000 1.0000 0.1174 1.0000 1.0000 1.0000
     272.500 0.0000 1.0000 0.9256 0.0000 0.9983 1.0000 1.0000 0.1194 1.0000 1.0000 1.0000
     273.000 0.0000 1.0000 0.9346 0.0000 0.9982 1.0000 1.0000 0.1215 1.0000 1.0000 1.0000
     273.500 0.0000 1.0000 0.9432 0.0000 0.9981 1.0000 1.0000 0.1236 1.0000 1.0000 1.0000
     274.000 0.0000 1.0000 0.9513 0.0000 0.9982 1.0000 1.0000 0.1256 1.0000 1.0000 1.0000
     274.500 0.0000 1.0000 0.9590 0.0000 0.9982 1.0000 1.0000 0.1277 1.0000 1.0000 1.0000
     275.000 0.0000 1.0000 0.9663 0.0000 0.9981 1.0000 1.0000 0.1299 1.0000 1.0000 1.0000
     275.500 0.0000 1.0000 0.9731 0.0000 0.9981 1.0000 1.0000 0.1320 1.0000 1.0000 1.0000
     276.000 0.0000 1.0000 0.9796 0.0000 0.9981 1.0000 1.0000 0.1341 1.0000 1.0000 1.0000
     276.500 0.0000 1.0000 0.9857 0.0000 0.9981 1.0000 1.0000 0.1363 1.0000 1.0000 1.0000
     277.000 0.0000 1.0000 0.9915 0.0000 0.9980 1.0000 1.0000 0.1384 1.0000 1.0000 1.0000
     277.500 0.0000 1.0000 0.9963 0.0000 0.9979 1.0000 1.0000 0.1406 1.0000 1.0000 1.0000
     278.000 0.0000 1.0000 0.9991 0.0000 0.9979 1.0000 1.0000 0.1428 1.0000 1.0000 1.0000
     278.500 0.0000 1.0000 0.9999 0.0000 0.9979 1.0000 1.0000 0.1450 1.0000 1.0000 1.0000
     279.000 0.0000 1.0000 1.0000 0.0000 0.9978 1.0000 1.0000 0.1472 1.0000 1.0000 1.0000
     279.500 0.0000 1.0000 1.0000 0.0000 0.9978 1.0000 1.0000 0.1494 1.0000 1.0000 1.0000
     280.000 0.0000 1.0000 1.0000 0.0000 0.9977 1.0000 1.0000 0.1516 1.0000 1.0000 1.0000
     280.500 0.0000 1.0000 1.0000 0.0000 0.9977 1.0000 1.0000 0.1539 1.0000 1.0000 1.0000
     281.000 0.0000 1.0000 1.0000 0.0000 0.9976 1.0000 1.0000 0.1561 1.0000 1.0000 1.0000
     281.500 0.0000 1.0000 1.0000 0.0000 0.9975 1.0000 1.0000 0.1584 1.0000 1.0000 1.0000
     282.000 0.0000 1.0000 1.0000 0.0000 0.9977 1.0000 1.0000 0.1606 1.0000 1.0000 1.0000
     282.500 0.0000 1.0000 1.0000 0.0000 0.9978 1.0000 1.0000 0.1629 1.0000 1.0000 1.0000
     283.000 0.0000 1.0000 1.0000 0.0000 0.9976 1.0000 1.0000 0.1652 1.0000 1.0000 1.0000
     283.500 0.0000 1.0000 1.0000 0.0000 0.9976 1.0000 1.0000 0.1675 1.0000 1.0000 1.0000
     284.000 0.0000 1.0000 1.0000 0.0000 0.9976 1.0000 1.0000 0.1698 1.0000 1.0000 1.0000
     284.500 0.0000 1.0000 1.0000 0.0000 0.9975 1.0000 1.0000 0.1721 1.0000 1.0000 1.0000
     285.000 0.0000 1.0000 1.0000 0.0000 0.9973 1.0000 1.0000 0.1745 1.0000 1.0000 1.0000
     285.500 0.0000 1.0000 1.0000 0.0000 0.9974 1.0000 1.0000 0.1768 1.0000 1.0000 1.0000
     286.000 0.0000 1.0000 1.0000 0.0000 0.9975 1.0000 1.0000 0.1791 1.0000 1.0000 1.0000
     286.500 0.0000 1.0000 1.0000 0.0000 0.9974 1.0000 1.0000 0.1815 1.0000 1.0000 1.0000
     287.000 0.0000 1.0000 1.0000 0.0000 0.9973 1.0000 1.0000 0.1838 1.0000 1.0000 1.0000
     287.500 0.0000 1.0000 1.0000 0.0000 0.9974 1.0000 1.0000 0.1862 1.0000 1.0000 1.0000
     288.000 0.0000 1.0000 1.0000 0.0000 0.9975 1.0000 1.0000 0.1886 1.0000 1.0000 1.0000
     288.500 0.0000 1.0000 1.0000 0.0000 0.9974 1.0000 1.0000 0.1909 1.0000 1.0000 1.0000
     289.000 0.0000 1.0000 1.0000 0.0000 0.9974 1.0000 1.0000 0.1933 1.0000 1.0000 1.0000
     289.500 0.0000 1.0000 1.0000 0.0000 0.9975 1.0000 1.0000 0.1957 1.0000 1.0000 1.0000
     290.000 0.0000 1.0000 1.0000 0.0000 0.9974 1.0000 1.0000 0.1981 1.0000 1.0000 1.0000
     290.500 0.0000 1.0000 1.0000 0.0000 0.9973 1.0000 1.0000 0.2005 1.0000 1.0000 1.0000
     291.000 0.0000 1.0000 1.0000 0.0000 0.9975 1.0000 1.0000 0.2030 1.0000 1.0000 1.0000
     291.500 0.0000 1.0000 1.0000 0.0000 0.9975 1.0000 1.0000 0.2054 1.0000 1.0000 1.0000
     292.000 0.0000 1.0000 1.0000 0.0000 0.9973 1.0000 1.0000 0.2078 1.0000 1.0000 1.0000
     292.500 0.0000 1.0000 1.0000 0.0000 0.9972 1.0000 1.0000 0.2102 1.0000 1.0000 1.0000
     293.000 0.0000 1.0000 1.0000 0.0000 0.9975 1.0000 1.0000 0.2127 1.0000 1.0000 1.0000
     293.500 0.0000 1.0000 1.0000 0.0000 0.9975 1.0000 1.0000 0.2151 1.0000 1.0000 1.0000
     294.000 0.0000 1.0000 1.0000 0.0000 0.9973 1.0000 1.0000 0.2175 1.0000 1.0000 1.0000
     294.500 0.0000 1.0000 1.0000 0.0000 0.9975 1.0000 1.0000 0.2200 1.0000 1.0000 1.0000
     295.000 0.0000 1.0000 1.0000 0.0000 0.9978 1.0000 1.0000 0.2224 1.0000 1.0000 1.0000
     295.500 0.0000 1.0000 1.0000 0.0001 0.9977 1.0000 1.0000 0.2249 1.0000 1.0000 1.0000
     296.000 0.0000 1.0000 1.0000 0.0002 0.9973 1.0000 1.0000 0.2273 1.0000 1.0000 1.0000
     296.500 0.0001 1.0000 1.0000 0.0003 0.9974 1.0000 1.0000 0.2298 1.0000 1.0000 1.0000
     297.000 0.0001 1.0000 1.0000 0.0004 0.9977 1.0000 1.0000 0.2323 1.0000 1.0000 1.0000
     297.500 0.0002 1.0000 1.0000 0.0008 0.9974 1.0000 1.0000 0.2347 1.0000 1.0000 1.0000
     298.000 0.0003 1.0000 1.0000 0.0012 0.9971 1.0000 1.0000 0.2372 1.0000 1.0000 1.0000
     298.500 0.0004 1.0000 1.0000 0.0018 0.9973 1.0000 1.0000 0.2397 1.0000 1.0000 1.0000
     299.000 0.0007 1.0000 1.0000 0.0028 0.9977 1.0000 1.0000 0.2422 1.0000 1.0000 1.0000
     299.500 0.0011 1.0000 1.0000 0.0043 0.9976 1.0000 1.0000 0.2447 1.0000 1.0000 1.0000
     300.000 0.0015 1.0000 1.0000 0.0061 0.9972 1.0000 1.0000 0.2471 1.0000 1.0000 1.0000
     300.500 0.0021 1.0000 1.0000 0.0083 0.9975 1.0000 1.0000 0.2496 1.0000 1.0000 1.0000
     301.000 0.0030 1.0000 1.0000 0.0119 0.9980 1.0000 1.0000 0.2521 1.0000 1.0000 1.0000
     301.500 0.0041 1.0000 1.0000 0.0160 0.9980 1.0000 1.0000 0.2546 1.0000 1.0000 1.0000
     302.000 0.0052 1.0000 1.0000 0.0203 0.9975 1.0000 1.0000 0.2571 1.0000 1.0000 1.0000
     302.500 0.0069 1.0000 1.0000 0.0265 0.9975 1.0000 1.0000 0.2596 1.0000 1.0000 1.0000
     303.000 0.0092 1.0000 1.0000 0.0352 0.9979 1.0000 1.0000 0.2621 1.0000 1.0000 1.0000
     303.500 0.0115 1.0000 1.0000 0.0434 0.9980 1.0000 1.0000 0.2646 1.0000 1.0000 1.0000
     304.000 0.0135 1.0000 1.0000 0.0507 0.9977 1.0000 1.0000 0.2671 1.0000 1.0000 1.0000
     304.500 0.0167 1.0000 1.0000 0.0622 0.9976 1.0000 1.0000 0.2696 1.0000 1.0000 1.0000
     305.000 0.0215 1.0000 1.0000 0.0790 0.9979 1.0000 1.0000 0.2721 1.0000 1.0000 1.0000
     305.500 0.0258 1.0000 1.0000 0.0940 0.9981 1.0000 1.0000 0.2746 1.0000 1.0000 1.0000
     306.000 0.0290 1.0000 1.0000 0.1047 0.9979 1.0000 1.0000 0.2771 1.0000 1.0000 1.0000
     306.500 0.0332 1.0000 1.0000 0.1190 0.9976 1.0000 1.0000 0.2796 1.0000 1.0000 1.0000
     307.000 0.0404 1.0000 1.0000 0.1432 0.9978 1.0000 1.0000 0.2821 1.0000 1.0000 1.0000
     307.500 0.0480 1.0000 1.0000 0.1687 0.9981 1.0000 1.0000 0.2846 1.0000 1.0000 1.0000
     308.000 0.0531 1.0000 1.0000 0.1852 0.9980 1.0000 1.0000 0.2871 1.0000 1.0000 1.0000
     308.500 0.0577 1.0000 1.0000 0.1995 0.9978 1.0000 1.0000 0.2896 1.0000 1.0000 1.0000
     309.000 0.0645 1.0000 1.0000 0.2211 0.9978 1.0000 1.0000 0.2921 1.0000 1.0000 1.0000
     309.500 0.0749 1.0000 1.0000 0.2547 0.9979 1.0000 1.0000 0.2946 1.0000 1.0000 1.0000
     310.000 0.0841 1.0000 1.0000 0.2837 0.9980 1.0000 1.0000 0.2971 1.0000 1.0000 1.0000
     310.500 0.0903 1.0000 1.0000 0.3021 0.9979 1.0000 1.0000 0.2996 1.0000 1.0000 1.0000
     311.000 0.0964 1.0000 1.0000 0.3199 0.9978 1.0000 1.0000 0.3021 1.0000 1.0000 1.0000
     311.500 0.1039 1.0000 1.0000 0.3418 0.9980 1.0000 1.0000 0.3045 1.0000 1.0000 1.0000
     312.000 0.1156 1.0000 1.0000 0.3772 0.9980 1.0000 1.0000 0.3070 1.0000 1.0000 1.0000
     312.500 0.1278 1.0000 1.0000 0.4134 0.9979 1.0000 1.0000 0.3095 1.0000 1.0000 1.0000
     313.000 0.1350 1.0000 1.0000 0.4335 0.9979 1.0000 1.0000 0.3120 1.0000 1.0000 1.0000
     313.500 0.1386 1.0000 1.0000 0.4416 0.9980 1.0000 1.0000 0.3145 1.0000 1.0000 1.0000
     314.000 0.1488 1.0000 1.0000 0.4700 0.9981 1.0000 1.0000 0.3170 1.0000 1.0000 1.0000
     314.500 0.1644 1.0000 1.0000 0.5154 0.9980 1.0000 1.0000 0.3195 1.0000 1.0000 1.0000
     315.000 0.1731 1.0000 1.0000 0.5386 0.9979 1.0000 1.0000 0.3219 1.0000 1.0000 1.0000
     315.500 0.1751 1.0000 1.0000 0.5407 0.9979 1.0000 1.0000 0.3244 1.0000 1.0000 1.0000
     316.000 0.1841 1.0000 1.0000 0.5642 0.9980 1.0000 1.0000 0.3269 1.0000 1.0000 1.0000
     316.500 0.1987 1.0000 1.0000 0.6043 0.9980 1.0000 1.0000 0.3294 1.0000 1.0000 1.0000
     317.000 0.2060 1.0000 1.0000 0.6221 0.9979 1.0000 1.0000 0.3318 1.0000 1.0000 1.0000
     317.500 0.2077 1.0000 1.0000 0.6227 0.9978 1.0000 1.0000 0.3343 1.0000 1.0000 1.0000
     318.000 0.2167 1.0000 1.0000 0.6447 0.9978 1.0000 1.0000 0.3368 1.0000 1.0000 1.0000
     318.500 0.2345 1.0000 1.0000 0.6924 0.9978 1.0000 1.0000 0.3393 1.0000 1.0000 1.0000
     319.000 0.2462 1.0000 1.0000 0.7219 0.9979 1.0000 1.0000 0.3417 1.0000 1.0000 1.0000
     319.500 0.2447 1.0000 1.0000 0.7126 0.9978 1.0000 1.0000 0.3442 1.0000 1.0000 1.0000
     320.000 0.2454 1.0000 1.0000 0.7094 0.9978 1.0000 1.0000 0.3466 1.0000 1.0000 1.0000
     320.500 0.2607 1.0000 1.0000 0.7481 0.9978 1.0000 1.0000 0.3491 1.0000 1.0000 1.0000
     321.000 0.2792 1.0000 1.0000 0.7960 0.9978 1.0000 1.0000 0.3515 1.0000 1.0000 1.0000
     321.500 0.2851 1.0000 1.0000 0.8073 0.9978 1.0000 1.0000 0.3539 1.0000 1.0000 1.0000
     322.000 0.2781 1.0000 1.0000 0.7823 0.9978 1.0000 1.0000 0.3564 1.0000 1.0000 1.0000
     322.500 0.2763 1.0000 1.0000 0.7716 0.9977 1.0000 1.0000 0.3588 1.0000 1.0000 1.0000
     323.000 0.2902 1.0000 1.0000 0.8050 0.9977 1.0000 1.0000 0.3613 1.0000 1.0000 1.0000
     323.500 0.3111 1.0000 1.0000 0.8572 0.9977 1.0000 1.0000 0.3637 1.0000 1.0000 1.0000
     324.000 0.3207 1.0000 1.0000 0.8780 0.9977 1.0000 1.0000 0.3661 1.0000 1.0000 1.0000
     324.500 0.3156 1.0000 1.0000 0.8586 0.9977 1.0000 1.0000 0.3685 1.0000 1.0000 1.0000
     325.000 0.3097 1.0000 1.0000 0.8368 0.9976 1.0000 1.0000 0.3709 1.0000 1.0000 1.0000
     325.500 0.3167 1.0000 1.0000 0.8502 0.9976 1.0000 1.0000 0.3733 1.0000 1.0000 1.0000
     326.000 0.3323 1.0000 1.0000 0.8863 0.9976 1.0000 1.0000 0.3758 1.0000 1.0000 1.0000
     326.500 0.3454 1.0000 1.0000 0.9156 0.9976 1.0000 1.0000 0.3782 1.0000 1.0000 1.0000
     327.000 0.3480 1.0000 1.0000 0.9168 0.9976 1.0000 1.0000 0.3805 1.0000 1.0000 1.0000
     327.500 0.3428 1.0000 1.0000 0.8975 0.9976 1.0000 1.0000 0.3829 1.0000 1.0000 1.0000
     328.000 0.3395 1.0000 1.0000 0.8832 0.9975 1.0000 1.0000 0.3853 1.0000 1.0000 1.0000
     328.500 0.3495 1.0000 1.0000 0.9035 0.9975 1.0000 1.0000 0.3877 1.0000 1.0000 1.0000
     329.000 0.3649 1.0000 1.0000 0.9377 0.9975 1.0000 1.0000 0.3901 1.0000 1.0000 1.0000
     329.500 0.3734 1.0000 1.0000 0.9540 0.9974 1.0000 1.0000 0.3924 1.0000 1.0000 1.0000
     330.000 0.3734 1.0000 1.0000 0.9482 0.9974 1.0000 1.0000 0.3948 1.0000 1.0000 1.0000
     330.500 0.3690 1.0000 1.0000 0.9314 0.9975 1.0000 1.0000 0.3972 1.0000 1.0000 1.0000
     331.000 0.3678 1.0000 1.0000 0.9229 0.9974 1.0000 1.0000 0.3995 1.0000 1.0000 1.0000
     331.500 0.3744 1.0000 1.0000 0.9339 0.9974 1.0000 1.0000 0.4019 1.0000 1.0000 1.0000
     332.000 0.3858 1.0000 1.0000 0.9570 0.9973 1.0000 1.0000 0.4042 1.0000 1.0000 1.0000
     332.500 0.3935 1.0000 1.0000 0.9705 0.9971 1.0000 1.0000 0.4066 1.0000 1.0000 1.0000
     333.000 0.3950 1.0000 1.0000 0.9688 0.9970 1.0000 1.0000 0.4089 1.0000 1.0000 1.0000
     333.500 0.3922 1.0000 1.0000 0.9565 0.9972 1.0000 1.0000 0.4112 1.0000 1.0000 1.0000
     334.000 0.3926 1.0000 1.0000 0.9519 0.9973 1.0000 1.0000 0.4136 1.0000 1.0000 1.0000
     334.500 0.4000 1.0000 1.0000 0.9645 0.9972 1.0000 1.0000 0.4159 1.0000 1.0000 1.0000
     335.000 0.4079 1.0000 1.0000 0.9781 0.9972 1.0000 1.0000 0.4182 1.0000 1.0000 1.0000
     335.500 0.4131 1.0000 1.0000 0.9852 0.9972 1.0000 1.0000 0.4205 1.0000 1.0000 1.0000
     336.000 0.4153 1.0000 1.0000 0.9851 0.9971 1.0000 1.0000 0.4228 1.0000 1.0000 1.0000
     336.500 0.4148 1.0000 1.0000 0.9787 0.9971 1.0000 1.0000 0.4251 1.0000 1.0000 1.0000
     337.000 0.4135 1.0000 1.0000 0.9703 0.9972 1.0000 1.0000 0.4274 1.0000 1.0000 1.0000
     337.500 0.4147 1.0000 1.0000 0.9678 0.9972 1.0000 1.0000 0.4297 1.0000 1.0000 1.0000
     338.000 0.4208 1.0000 1.0000 0.9770 0.9971 1.0000 1.0000 0.4319 1.0000 1.0000 1.0000
     338.500 0.4271 1.0000 1.0000 0.9868 0.9968 1.0000 1.0000 0.4342 1.0000 1.0000 1.0000
     339.000 0.4311 1.0000 1.0000 0.9910 0.9968 1.0000 1.0000 0.4365 1.0000 1.0000 1.0000
     339.500 0.4329 1.0000 1.0000 0.9900 0.9968 1.0000 1.0000 0.4387 1.0000 1.0000 1.0000
     340.000 0.4331 1.0000 1.0000 0.9852 0.9968 1.0000 1.0000 0.4410 1.0000 1.0000 1.0000
     340.500 0.4345 1.0000 1.0000 0.9836 0.9967 1.0000 1.0000 0.4432 1.0000 1.0000 1.0000
     341.000 0.4388 1.0000 1.0000 0.9884 0.9966 1.0000 1.0000 0.4455 1.0000 1.0000 1.0000
     341.500 0.4431 1.0000 1.0000 0.9931 0.9967 1.0000 1.0000 0.4477 1.0000 1.0000 1.0000
     342.000 0.4463 1.0000 1.0000 0.9952 0.9968 1.0000 1.0000 0.4499 1.0000 1.0000 1.0000
     342.500 0.4488 1.0000 1.0000 0.9957 0.9970 1.0000 1.0000 0.4521 1.0000 1.0000 1.0000
     343.000 0.4506 1.0000 1.0000 0.9946 0.9970 1.0000 1.0000 0.4544 1.0000 1.0000 1.0000
     343.500 0.4515 1.0000 1.0000 0.9920 0.9969 1.0000 1.0000 0.4566 1.0000 1.0000 1.0000
     344.000 0.4522 1.0000 1.0000 0.9887 0.9968 1.0000 1.0000 0.4588 1.0000 1.0000 1.0000
     344.500 0.4547 1.0000 1.0000 0.9895 0.9968 1.0000 1.0000 0.4610 1.0000 1.0000 1.0000
     345.000 0.4585 1.0000 1.0000 0.9932 0.9967 1.0000 1.0000 0.4632 1.0000 1.0000 1.0000
     345.500 0.4618 1.0000 1.0000 0.9957 0.9966 1.0000 1.0000 0.4653 1.0000 1.0000 1.0000
     346.000 0.4645 1.0000 1.0000 0.9971 0.9965 1.0000 1.0000 0.4675 1.0000 1.0000 1.0000
     346.500 0.4671 1.0000 1.0000 0.9980 0.9964 1.0000 1.0000 0.4697 1.0000 1.0000 1.0000
     347.000 0.4691 1.0000 1.0000 0.9977 0.9965 1.0000 1.0000 0.4718 1.0000 1.0000 1.0000
     347.500 0.4709 1.0000 1.0000 0.9971 0.9964 1.0000 1.0000 0.4740 1.0000 1.0000 1.0000
     348.000 0.4732 1.0000 1.0000 0.9976 0.9962 1.0000 1.0000 0.4761 1.0000 1.0000 1.0000
     348.500 0.4757 1.0000 1.0000 0.9986 0.9961 1.0000 1.0000 0.4783 1.0000 1.0000 1.0000
     349.000 0.4783 1.0000 1.0000 0.9992 0.9964 1.0000 1.0000 0.4804 1.0000 1.0000 1.0000
     349.500 0.4806 1.0000 1.0000 0.9993 0.9966 1.0000 1.0000 0.4825 1.0000 1.0000 1.0000
     350.000 0.4827 1.0000 1.0000 0.9993 0.9966 1.0000 1.0000 0.4847 1.0000 1.0000 1.0000
     350.500 0.4847 1.0000 1.0000 0.9993 0.9965 1.0000 1.0000 0.4868 1.0000 1.0000 1.0000
     351.000 0.4866 1.0000 1.0000 0.9989 0.9964 1.0000 1.0000 0.4889 1.0000 1.0000 1.0000
     351.500 0.4882 1.0000 1.0000 0.9979 0.9964 1.0000 1.0000 0.4910 1.0000 1.0000 1.0000
     352.000 0.4902 1.0000 1.0000 0.9977 0.9965 1.0000 1.0000 0.4931 1.0000 1.0000 1.0000
     352.500 0.4927 1.0000 1.0000 0.9985 0.9966 1.0000 1.0000 0.4952 1.0000 1.0000 1.0000
     353.000 0.4951 1.0000 1.0000 0.9992 0.9966 1.0000 1.0000 0.4972 1.0000 1.0000 1.0000
     353.500 0.4973 1.0000 1.0000 0.9996 0.9964 1.0000 1.0000 0.4993 1.0000 1.0000 1.0000
     354.000 0.4992 1.0000 1.0000 0.9997 0.9960 1.0000 1.0000 0.5014 1.0000 1.0000 1.0000
     354.500 0.5012 1.0000 1.0000 0.9997 0.9958 1.0000 1.0000 0.5034 1.0000 1.0000 1.0000
     355.000 0.5033 1.0000 1.0000 0.9996 0.9960 1.0000 1.0000 0.5055 1.0000 1.0000 1.0000
     355.500 0.5054 1.0000 1.0000 0.9996 0.9962 1.0000 1.0000 0.5075 1.0000 1.0000 1.0000
     356.000 0.5074 1.0000 1.0000 0.9996 0.9962 1.0000 1.0000 0.5096 1.0000 1.0000 1.0000
     356.500 0.5093 1.0000 1.0000 0.9994 0.9960 1.0000 1.0000 0.5116 1.0000 1.0000 1.0000
     357.000 0.5111 1.0000 1.0000 0.9993 0.9958 1.0000 1.0000 0.5136 1.0000 1.0000 1.0000
     357.500 0.5131 1.0000 1.0000 0.9993 0.9958 1.0000 1.0000 0.5156 1.0000 1.0000 1.0000
     358.000 0.5153 1.0000 1.0000 0.9995 0.9960 1.0000 1.0000 0.5176 1.0000 1.0000 1.0000
     358.500 0.5174 1.0000 1.0000 0.9996 0.9962 1.0000 1.0000 0.5196 1.0000 1.0000 1.0000
     359.000 0.5195 1.0000 1.0000 0.9996 0.9963 1.0000 1.0000 0.5216 1.0000 1.0000 1.0000
